# www.neaspec.com
# Scan:	 	Whitelight Imaging
# Project:	 	20251007_PS
# Description:	 	
# Date:	 	10/07/2025 16:01:01
# Scanner Center Position (X, Y):	[µm]	49.66	48.17	 
# Rotation:	[°]	0	 	 
# Scan Area (X, Y, Z):	[µm]	5.000	5.000	0.000
# Pixel Area (X, Y, Z):	[px]	100	100	1
# Interferometer Center/Distance:	[µm]	546.322	0.000	 
# Averaging:	 	1	 	 
# Integration time:	[ms]	5	 	 
# Wavenumber Scaling:	 	1.000000	 	 
# Laser Source:	 	4.5-15 µm nano-FTIR laser
# Detector:	 	R
# Target Wavelength:	[µm]	7.502	 	 
# Demodulation Mode:	 	Fourier
# Tip Frequency:	[Hz]	238,800.109	 	 
# Tip Amplitude:	[mV]	13.000	 	 
# Tapping Amplitude:	[nm]	74.298	 	 
# Modulation Frequency:	[Hz]	0.000	 	 
# Modulation Amplitude:	[mV]	0.000	 	 
# Modulation Offset:	[mV]	0.000	 	 
# Setpoint:	[%]	79.75	 	 
# Regulator (P, I, D):	 	4.206850	8.625812	1.000000
# Tip Potential:	[mV]	0.000	 	 
# M1A Scaling:	[nm/V]	0.426	 	 
# M1A Cantilever Factor:	 	1,000	 	 
# Q-Factor:	 	452.3	 	 
# Version:	 	2.1.11536.0
219.19374      	219.22035      	219.22438      	219.22063      	219.18639      	219.19919      	219.20117      	219.21703      	219.21658      	219.21365      	219.2086       	219.21313      	219.21574      	219.20766      	219.22072      	219.19933      	219.18646      	219.20515      	219.20961      	219.19225      	219.17303      	219.18431      	219.17043      	219.18625      	219.15855      	219.1636       	219.17459      	219.03938      	219.11693      	219.06924      	219.0899       	219.06874      	219.07553      	219.07909      	219.10728      	219.10222      	219.07318      	219.08698      	219.08617      	219.11334      	219.0922       	219.06635      	219.09576      	219.09415      	219.07997      	219.0847       	219.04892      	219.06566      	219.0748       	219.05745      	219.07268      	219.05426      	219.05048      	219.05382      	219.04102      	219.03621      	219.05772      	219.01547      	218.90932      	219.08888      	219.08675      	219.12804      	219.07985      	219.0899       	219.07852      	219.10007      	219.10074      	219.113        	219.09692      	219.11073      	219.06699      	219.08286      	219.06535      	219.0757       	219.05653      	219.0572       	219.04929      	219.03827      	219.03372      	219.04654      	219.0444       	219.02773      	219.04984      	219.02843      	219.04169      	219.00414      	219.02953      	219.00214      	218.9851       	218.86774      	218.89212      	218.94359      	218.96014      	218.98372      	218.96011      	218.93695      	218.92546      	218.96165      	218.95302      	218.99266      	
218.92435      	218.9284       	218.93651      	218.93219      	218.91742      	218.94728      	218.93398      	218.92058      	218.94032      	218.91885      	218.91716      	218.94772      	218.95036      	218.94223      	218.90192      	218.90883      	218.911        	218.93655      	218.94032      	218.93132      	218.9389       	218.89299      	218.94734      	218.94264      	218.90144      	218.90921      	218.95412      	218.88208      	218.94955      	218.88052      	218.86694      	218.89456      	218.86159      	218.87477      	218.86884      	218.88629      	218.92027      	218.90445      	218.88547      	218.85477      	218.88368      	218.8856       	218.88634      	218.9086       	218.89984      	218.87462      	218.88231      	218.9031       	218.91632      	218.89307      	218.91103      	218.89821      	218.90553      	218.90968      	218.86949      	218.87541      	218.87866      	218.83194      	218.72739      	218.84106      	218.8754       	218.91406      	218.91937      	218.91124      	218.88052      	218.88327      	218.89584      	218.88956      	218.90526      	218.88535      	218.89236      	218.8872       	218.89516      	218.9319       	218.91031      	218.90227      	218.91803      	218.88214      	218.91235      	218.90616      	218.88454      	218.89436      	218.88687      	218.88777      	218.89064      	218.92294      	218.8848       	218.93065      	218.99167      	218.86884      	218.83885      	218.80592      	218.74167      	218.85019      	218.87598      	218.87872      	218.85793      	218.85864      	218.8629       	218.86523      	
218.78104      	218.77847      	218.77931      	218.79245      	218.78001      	218.77908      	218.77899      	218.77321      	218.73727      	218.75189      	218.77588      	218.78058      	218.77458      	218.79964      	218.751        	218.77713      	218.76752      	218.72664      	218.7599       	218.74232      	218.7591       	218.73392      	218.73471      	218.73961      	218.71945      	218.74335      	218.71535      	218.63284      	218.74269      	218.67982      	218.72072      	218.70369      	218.70036      	218.70961      	218.68414      	218.71292      	218.69392      	218.71646      	218.70062      	218.70204      	218.71475      	218.66241      	218.67694      	218.65472      	218.64774      	218.66081      	218.65689      	218.65804      	218.64757      	218.63477      	218.67325      	218.64548      	218.66994      	218.68698      	218.67113      	218.68056      	218.69241      	218.59286      	218.52347      	218.64828      	218.65862      	218.70709      	218.68498      	218.66458      	218.67511      	218.66054      	218.65541      	218.7066       	218.67311      	218.6904       	218.71841      	218.66074      	218.73875      	218.6968       	218.67863      	218.67749      	218.65877      	218.65471      	218.6878       	218.6378       	218.65578      	218.64996      	218.54312      	218.61913      	218.63588      	218.71039      	218.61726      	218.64096      	218.64194      	218.5861       	218.51782      	218.46567      	218.46631      	218.46585      	218.46718      	218.54851      	218.56412      	218.57933      	218.56519      	218.54979      	
218.47316      	218.46852      	218.47638      	218.48392      	218.4761       	218.48485      	218.47241      	218.45575      	218.46068      	218.44528      	218.45978      	218.43929      	218.42967      	218.43707      	218.40012      	218.43123      	218.41446      	218.44057      	218.44794      	218.42548      	218.4352       	218.44583      	218.42026      	218.41241      	218.43427      	218.40974      	218.29208      	218.29695      	218.44107      	218.35509      	218.32697      	218.35721      	218.35463      	218.30116      	218.35788      	218.38007      	218.41745      	218.34727      	218.32529      	218.3146       	218.3318       	218.33522      	218.33063      	218.38304      	218.36197      	218.32585      	218.31169      	218.3278       	218.3215       	218.35182      	218.348        	218.36392      	218.32477      	218.32306      	218.31491      	218.30217      	218.30759      	218.2985       	218.13794      	218.2076       	218.3093       	218.34195      	218.31323      	218.34056      	218.29214      	218.3255       	218.2949       	218.3163       	218.30869      	218.30759      	218.30954      	218.32054      	218.30202      	218.30075      	218.34398      	218.30658      	218.28062      	218.29193      	218.30739      	218.28185      	218.26369      	218.25778      	218.27536      	218.28468      	218.3282       	218.30272      	218.2176       	218.21034      	218.16913      	218.18996      	218.11575      	218.1017       	218.1046       	218.08737      	218.0709       	218.04701      	218.03006      	218.1774       	218.23521      	218.21027      	
217.96217      	217.96967      	217.95726      	217.96303      	217.95798      	217.97484      	217.93579      	217.96677      	217.94518      	217.94992      	217.95432      	217.942        	217.98024      	217.96877      	217.97726      	217.95473      	217.97252      	217.96053      	217.94312      	217.92691      	217.95761      	217.93411      	217.93288      	217.93587      	217.92722      	217.94687      	217.9748       	217.88795      	217.91122      	217.88843      	217.9165       	217.91434      	217.88919      	217.88925      	217.91527      	217.89334      	217.87148      	217.90071      	217.89618      	217.87337      	217.88809      	217.87343      	217.8937       	217.86024      	217.82199      	217.84828      	217.8283       	217.85284      	217.82985      	217.8282       	217.8467       	217.84618      	217.81386      	217.78947      	217.83902      	217.85605      	217.85023      	217.83932      	217.70636      	217.74202      	217.85042      	217.86517      	217.86882      	217.88048      	217.86859      	217.86848      	217.85194      	217.84914      	217.85072      	217.86627      	217.84915      	217.85333      	217.8412       	217.86115      	217.83485      	217.8642       	217.86119      	217.85074      	217.8919       	217.82916      	217.8359       	217.8506       	217.87492      	217.9099       	217.95834      	217.85825      	217.74628      	217.7952       	217.79169      	217.73325      	217.7295       	217.7132       	217.66957      	217.65912      	217.65869      	217.64255      	217.6001       	217.5913       	217.65245      	217.5859       	
217.74008      	217.72542      	217.70917      	217.71042      	217.7132       	217.7169       	217.72626      	217.72128      	217.67947      	217.6655       	217.66464      	217.68002      	217.6754       	217.70442      	217.69969      	217.66705      	217.67535      	217.64812      	217.64583      	217.65103      	217.641        	217.57965      	217.59561      	217.59064      	217.59435      	217.62836      	217.61862      	217.47313      	217.56723      	217.54646      	217.58067      	217.60179      	217.61182      	217.54501      	217.56064      	217.58023      	217.52759      	217.5896       	217.61394      	217.62988      	217.62549      	217.63925      	217.60101      	217.5976       	217.59822      	217.58626      	217.55217      	217.54327      	217.57893      	217.55626      	217.61687      	217.57722      	217.512        	217.58371      	217.5198       	217.61087      	217.5551       	217.48082      	217.46696      	217.5558       	217.6182       	217.66202      	217.6664       	217.64859      	217.6478       	217.62894      	217.65388      	217.65395      	217.63185      	217.62546      	217.68626      	217.66342      	217.65991      	217.63235      	217.6592       	217.64926      	217.63345      	217.59912      	217.64348      	217.6434       	217.6419       	217.64359      	217.7149       	217.69897      	217.70801      	217.63654      	217.59967      	217.49446      	217.4964       	217.47679      	217.49118      	217.458        	217.43451      	217.42155      	217.424        	217.40501      	217.44043      	217.41383      	217.56041      	217.67209      	
217.58469      	217.58415      	217.60376      	217.61517      	217.5892       	217.57828      	217.5746       	217.57814      	217.59386      	217.5777       	217.56917      	217.57718      	217.61182      	217.58766      	217.58084      	217.57698      	217.6046       	217.59186      	217.58032      	217.59479      	217.5662       	217.57095      	217.61331      	217.57008      	217.56537      	217.53166      	217.46007      	217.31381      	217.27823      	217.35263      	217.34828      	217.35562      	217.37434      	217.27051      	217.27597      	217.29587      	217.28726      	217.22363      	217.24672      	217.27017      	217.23297      	217.24391      	217.27417      	217.26454      	217.24876      	217.27809      	217.27501      	217.40585      	217.33788      	217.3658       	217.30095      	217.3306       	217.45041      	217.49501      	217.5144       	217.3785       	217.40852      	217.4764       	217.52167      	217.45882      	217.48323      	217.48033      	217.50565      	217.51756      	217.4969       	217.49452      	217.44005      	217.47849      	217.50774      	217.48224      	217.50099      	217.45906      	217.47461      	217.49806      	217.46983      	217.47656      	217.49103      	217.46655      	217.44135      	217.47386      	217.47682      	217.56252      	217.61443      	217.60463      	217.5548       	217.50832      	217.46588      	217.40031      	217.37877      	217.35863      	217.33861      	217.37518      	217.33905      	217.32277      	217.2643       	217.27034      	217.30157      	217.21614      	217.32382      	217.47519      	
217.55656      	217.55258      	217.5473       	217.56342      	217.57903      	217.56175      	217.5718       	217.5456       	217.53607      	217.56134      	217.57326      	217.53578      	217.54768      	217.55664      	217.54117      	217.54208      	217.55078      	217.53752      	217.54137      	217.5804       	217.56467      	217.56131      	217.60231      	217.56644      	217.55484      	217.56833      	217.57265      	217.60506      	217.5784       	217.598        	217.60081      	217.60432      	217.57928      	217.5624       	217.5994       	217.58545      	217.59525      	217.58438      	217.59491      	217.58688      	217.5764       	217.5703       	217.58473      	217.57805      	217.56412      	217.60245      	217.60416      	217.62315      	217.61136      	217.60385      	217.60423      	217.61542      	217.62598      	217.59886      	217.6099       	217.59947      	217.61969      	217.62973      	217.62875      	217.65541      	217.62082      	217.6078       	217.6295       	217.66852      	217.61351      	217.61847      	217.65445      	217.60066      	217.62761      	217.62053      	217.62428      	217.65729      	217.6107       	217.59122      	217.61841      	217.6232       	217.63487      	217.62253      	217.5918       	217.6084       	217.63525      	217.63385      	217.79189      	217.66675      	217.60439      	217.54178      	217.53575      	217.39296      	217.40399      	217.45169      	217.47862      	217.49957      	217.51581      	217.42247      	217.37772      	217.37224      	217.39069      	217.32697      	217.44684      	217.6839       	
218.13565      	218.15872      	218.17145      	218.11841      	218.11618      	218.09889      	218.13878      	218.10384      	218.10748      	218.15565      	218.11304      	218.13246      	218.15251      	218.14157      	218.15355      	218.19627      	218.14484      	218.20209      	218.1626       	218.18939      	218.19705      	218.21988      	218.21164      	218.20074      	218.1974       	218.17603      	218.15584      	218.12943      	218.14119      	218.1511       	218.16008      	218.15242      	218.1493       	218.18448      	218.15642      	218.15468      	218.1681       	218.19884      	218.19849      	218.18646      	218.17389      	218.18297      	218.17581      	218.14725      	218.13849      	218.24219      	218.1656       	218.19556      	218.20192      	218.24632      	218.2475       	218.22446      	218.21167      	218.23032      	218.2186       	218.2456       	218.24686      	218.22192      	218.25526      	218.23802      	218.2356       	218.22902      	218.2408       	218.2304       	218.22502      	218.24828      	218.25787      	218.27881      	218.28734      	218.31656      	218.2526       	218.28253      	218.30186      	218.3409       	218.34131      	218.35306      	218.3545       	218.34073      	218.35066      	218.39307      	218.26723      	218.36241      	218.11562      	218.26114      	218.25829      	218.15395      	218.09033      	218.11304      	218.12486      	218.18353      	218.21608      	218.1902       	218.24005      	218.18544      	218.19496      	218.14854      	218.13321      	218.14111      	218.35133      	218.4362       	
218.83171      	218.83719      	218.85898      	218.85808      	218.87315      	218.88664      	218.85397      	218.86472      	218.89584      	218.92882      	218.92506      	218.92603      	218.90775      	218.9409       	218.93825      	218.89879      	218.93172      	218.94846      	218.96193      	219.01808      	218.97116      	218.95859      	218.96173      	218.96164      	218.9369       	218.92963      	218.96378      	218.93036      	218.94138      	218.92389      	218.92592      	218.96251      	218.93976      	218.952        	218.97415      	218.96947      	218.96458      	218.96902      	218.98048      	218.99142      	219.00702      	219.02211      	219.0195       	219.03546      	219.01506      	219.01067      	218.98802      	219.01782      	219.02151      	219.02328      	219.1044       	219.06874      	219.06508      	219.09164      	219.10654      	219.10817      	219.12091      	219.11792      	219.11742      	219.13435      	219.13719      	219.13597      	219.10349      	219.12827      	219.108        	219.12817      	219.13528      	219.1494       	219.14923      	219.15964      	219.1641       	219.1491       	219.15186      	219.16269      	219.16132      	219.16986      	219.18365      	219.18163      	219.18376      	219.18594      	219.21198      	219.25652      	219.28012      	218.97073      	219.10483      	218.95972      	218.8725       	218.93341      	218.97455      	219.02643      	219.1101       	219.06297      	219.03369      	218.96881      	218.9609       	218.962        	218.88348      	218.83766      	219.07137      	219.18947      	
219.48456      	219.47845      	219.45973      	219.45657      	219.49013      	219.49564      	219.48         	219.50365      	219.50882      	219.48103      	219.4903       	219.49124      	219.4866       	219.49944      	219.56007      	219.54327      	219.53835      	219.55943      	219.57448      	219.56274      	219.56258      	219.55487      	219.54312      	219.57889      	219.55075      	219.55826      	219.55548      	219.54437      	219.60208      	219.54828      	219.56119      	219.56932      	219.55319      	219.55605      	219.54906      	219.58673      	219.5638       	219.58218      	219.60912      	219.56186      	219.5729       	219.57349      	219.5613       	219.59381      	219.59227      	219.57567      	219.58763      	219.5961       	219.62405      	219.62093      	219.58041      	219.60402      	219.60547      	219.5729       	219.58847      	219.61385      	219.60042      	219.6213       	219.60387      	219.59195      	219.62346      	219.65062      	219.61795      	219.65251      	219.60216      	219.64789      	219.62111      	219.6325       	219.62401      	219.62936      	219.66144      	219.68205      	219.66684      	219.6771       	219.65758      	219.65465      	219.65599      	219.65244      	219.66934      	219.64113      	219.70609      	219.66428      	219.81464      	219.68253      	219.59633      	219.5173       	219.52257      	219.49442      	219.46153      	219.45735      	219.53403      	219.49797      	219.45363      	219.43571      	219.405        	219.36737      	219.32602      	219.34608      	219.64227      	219.69385      	
